,Fp1,Fpz,Fp2,F7,F3,Fz,F4,F8,FC5,FC1,FC2,FC6,M1,T7,C3,Cz,C4,T8,M2,CP5,CP1,CP2,CP6,P7,P3,Pz,P4,P8,POz,O1,Oz,O2,Participant,StimType,Period,Feature
144,0.025808635,0.136302325,0.043818825,-0.007135085,0.114663594,0.016538194,0.109544395,0.122156331,0.031181024,-0.045783983,0.06165263,0.063180732,-0.023277584,-0.057650818,0.023214066,0.048066576,0.038970559,0.043346544,-0.017953527,0.081241076,0.035147693,0.050597829,0.13017003,0.067203285,0.081677676,0.103067419,0.088944816,0.171027705,0.077341592,0.080721378,0.025927521,-0.067955284,11,F30,PercentChange,delta
145,-0.062005669,0.104666995,-0.040121229,-0.050384715,-0.055017922,-0.037926964,0.050000142,0.024471443,0.141057854,-0.009073372,0.040542794,0.148983219,0.134975069,0.027557209,0.131195902,0.025282149,0.108482032,0.087664953,0.228784153,0.086658926,0.025158382,-0.003512256,-0.015070358,-0.019697314,-0.051290017,-0.039738669,0.017393616,-0.034638041,0.011192751,-0.002738176,-0.03657947,-0.073889384,13,F30,PercentChange,delta
146,-0.040348651,0.068233638,0.057249488,-0.011673011,-0.04610122,-0.043823828,0.027389334,0.002771504,-0.02299726,-0.038058407,0.032784864,-0.037888483,-0.00152666,-0.036708102,0.019578963,-0.008670248,-0.014943061,-0.011257362,-0.020874771,-0.045435207,-0.035613014,0.041375081,0.042093051,0.057549005,-0.075379559,-0.052376406,-0.023529312,0.083720642,-0.031847699,0.08796707,-0.00144307,-0.036904592,14,F30,PercentChange,delta
147,-0.025967767,0.150342976,-0.00137333,0.024743951,-0.057692958,0.11674284,0.129626489,0.055747009,0.062027913,-0.02493676,0.001686468,0.11072836,0.100359067,-0.030817042,0.089471792,0.033335247,0.021358471,0.034474878,0.066467933,-0.013277882,-0.040580769,-0.001454744,0.02755273,0.001666721,0.002174727,0.061132469,-0.014814667,0.074707112,-0.088651352,-0.136986128,-0.087894151,0.069517117,16,F30,PercentChange,delta
148,0.039449906,0.089554493,0.131136517,-0.028451928,0.074656827,0.088786177,0.014043526,-0.026872335,0.071407239,0.021700127,0.129736007,0.05076708,0.031755219,0.011157826,0.129861396,0.039100673,-0.037632182,-0.043277542,0.037376892,0.059699684,0.004644126,-0.02366761,-0.045045608,0.067600134,0.079234796,-0.025121832,0.066859298,0.081356835,-0.012130527,0.043061051,0.088174905,-0.018409973,20,F30,PercentChange,delta
149,-0.038480887,0.001120536,-0.018163433,-0.112053447,-0.020810521,-0.075366484,-0.024367356,-0.014984398,-0.017701257,0.020910213,-0.030449082,0.011102376,-0.022881605,0.013519966,-0.00140564,-0.002861584,-0.008199168,-0.000889007,0.013187755,-0.091542976,-0.040243069,-0.029757779,-0.060172096,-0.033414103,-0.046318955,-0.02284651,-0.065483264,-0.010049193,-0.060642005,-0.045880645,-0.033364118,-0.047947598,1219,F30,PercentChange,delta
150,-0.020940371,-0.069039886,-0.048675883,-0.044824117,0.004020637,0.066211788,-0.032428754,-0.02564597,-0.006697881,-0.025683131,-0.01636082,-0.012437732,0.012029452,-0.040491009,0.004061997,0.049248331,-0.054446131,-0.053160305,0.000248375,-0.006834139,0.036939426,-0.006537612,0.029756988,0.030840779,0.043676556,-0.011855494,0.073800167,0.040503229,0.04146334,-0.036781932,0.021722247,0.090661785,1518,F30,PercentChange,delta
151,-0.020206673,-0.053656293,0.068039838,0.071919305,0.051146276,-0.057292126,-0.013565442,-0.015657802,-0.021065326,0.034387759,-0.052672626,-0.011427318,-0.021528837,-0.015190576,-0.093459159,0.047426241,0.009444925,0.02777938,-0.035048925,0.018884126,0.003922057,0.035140913,0.029225106,0.035666844,0.042876685,-0.012641323,0.030409674,-0.012489274,0.011253069,-0.026751371,0.019719443,-0.078323116,212526,F30,PercentChange,delta
152,0.029286486,0.011561532,-0.008157301,0.089973668,0.028822864,0.058510538,0.00364702,-0.027486707,0.015614774,-0.026828725,0.025672606,0.002425908,0.006217932,-0.007222832,0.012569183,0.004763162,0.012234202,0.00784839,0.014327844,-0.003665558,0.024356079,0.000600864,-0.014187259,0.008269073,0.012462245,0.002897729,0.045808727,0.02043541,-0.009200208,-0.011186746,0.004041444,0.043482728,222324,F30,PercentChange,delta
153,-0.103338799,-0.094713475,-0.02848158,-0.051196398,-0.006265102,-0.008543375,-0.086750085,0.016928726,0.025227182,0.008600884,-0.042755964,-0.08068895,-0.033612,-0.097995574,-0.008751479,0.017707047,0.021768487,0.034224098,-0.055063339,0.036217125,0.077017625,0.015277777,-0.084118502,-0.010519722,0.026570575,0.034955594,0.113446239,0.015690662,-0.042300768,0.0331485,-0.003112434,-0.049130259,11,M30,PercentChange,delta
154,0.25496822,0.00904652,0.253358051,0.062456708,0.05576731,-0.019115633,0.104517399,0.010057504,0.069790437,-0.031452449,-0.053146013,0.242296824,0.0290857,0.028564215,0.041566988,-0.04223986,0.01378288,0.032188688,0.144566828,0.188541074,0.217404744,0.060837983,0.059671899,0.045083291,0.012271834,0.121906335,0.026252734,0.079292066,0.124375218,0.111569887,0.064028227,0.02530431,13,M30,PercentChange,delta
155,0.002838439,-0.056335552,0.028259549,-0.120625956,0.009024435,-0.038505635,-0.014214682,-0.044259138,-0.015187344,-0.027864649,-0.035212105,-0.053753806,0.00523129,-0.036057466,-0.007114876,0.002131634,0.007410689,0.008829069,-0.017053761,-0.005127749,-0.004811345,0.012826355,-0.00050501,0.019703619,-0.088503056,-0.107737038,0.009080019,-0.043675073,-0.069931518,0.021049628,0.021661444,-0.024077578,14,M30,PercentChange,delta
156,-0.046655362,-0.068092158,-0.031165359,0.009372458,0.021232134,0.067621125,0.031335144,0.010000224,-0.012085999,0.041015256,-0.02122565,0.032298057,0.015949894,0.073855259,-0.002063941,-0.011558732,-0.010542424,-0.012784117,0.002196447,0.012563638,-0.000501411,0.000925255,-0.007432334,-0.009345259,0.005022687,-0.036719676,-0.031139348,0.046958528,-0.018328458,-0.01265369,-0.005837054,0.101127556,16,M30,PercentChange,delta
157,0.002455923,0.024585158,-0.08333242,0.084239072,-0.03516288,0.025934883,-0.007336454,-0.122416329,-0.106658403,0.024580876,-0.055880444,0.056838344,-0.076850692,-0.155017531,-0.045018038,-0.040717288,-0.005853927,0.075346957,-0.068109319,-0.041448396,0.05321595,0.01999566,0.005037404,-0.019595372,-0.025232568,0.036487433,-0.000822165,-0.009636407,-0.021748781,-0.039225738,-0.098100548,-0.060342982,20,M30,PercentChange,delta
158,0.15504442,0.058822487,0.0714125,0.069348509,0.034874614,0.086449048,0.030017043,0.007046556,0.005120724,0.040563249,0.017662721,0.031486296,0.033426419,0.05523429,0.018533722,-0.005769137,-0.011671294,-0.00554252,-0.000846881,6.67E-05,0.062598533,0.050688735,0.038579894,0.044358128,0.069696249,0.046872148,0.037221379,0.053179233,0.079287229,0.003190247,0.01855045,0.021531287,1219,M30,PercentChange,delta
159,0.045940282,0.077421109,0.040897686,0.093564152,-0.028472222,0.013875516,0.047659239,0.054557605,0.043957377,0.088167914,0.093748136,0.047759119,0.038160768,-0.00193546,-0.015239066,0.020445366,0.051625194,-0.009664713,0.035480522,-0.014481336,0.019835147,0.027348879,0.049615733,0.034781386,0.069617522,0.07130046,0.041539209,0.011576185,-0.021045134,0.029050105,-0.025722062,0.043241646,1518,M30,PercentChange,delta
160,-0.019498047,0.007098128,0.007266406,0.019670773,0.036343433,0.004423786,0.012661578,0.049295046,0.044174897,0.042031838,0.000968016,-0.002289084,0.021507262,0.035689302,-0.010819115,-0.008226104,0.019994281,0.067298105,0.000285004,0.039993743,0.062691236,0.020062826,0.037619528,0.047515261,0.05999455,0.037170517,0.004378547,0.031980763,0.049588941,0.028731759,-0.015142202,0.037534674,212526,M30,PercentChange,delta
161,-0.011705684,-0.002992484,0.005757864,0.039228579,-0.012660546,0.00408521,-0.011200203,-0.009060686,0.028085981,0.010689626,0.044044403,0.009031171,0.032997213,0.013399345,0.019855253,-0.020445299,-0.00624179,-0.014504837,0.012785417,0.034720196,0.011121282,0.044678367,0.011866998,0.008368712,0.002110732,-0.001889728,-0.011677552,0.029646392,-0.012610117,-0.037062676,-0.004900539,-0.006372408,222324,M30,PercentChange,delta
162,0.024228113,0.073261309,-0.088422556,0.195566243,-0.039979468,0.053373066,-0.00725629,-0.060436015,-0.090165856,0.060766413,0.085613193,-0.009795142,0.027051022,0.06667363,0.126206984,-0.25623568,-0.236063153,-0.297012543,0.013245023,-0.067379036,0.011728888,-0.018030124,-0.091346342,0.015881613,-0.152864189,0.021679982,0.001744184,-0.001987733,-0.034356822,0.034817998,-0.001409271,0.105488439,11,F30,PercentChange,theta
163,0.00086812,-0.069555063,-0.052725221,0.014599762,-0.026346442,-0.099662723,0.048911465,0.196164907,-0.062896957,0.083457545,-0.039181372,0.23734493,0.036985727,0.021152357,0.044539378,0.019367089,0.006375796,0.067748838,0.128881182,-0.057898411,-0.099607323,-0.1367978,-0.126159996,-0.137463566,-0.004236433,0.058094104,-0.064890211,-0.07023021,-0.063612191,-0.045297891,0.034372519,-0.120081475,13,F30,PercentChange,theta
164,-0.088963246,0.014077914,-0.035896454,0.00022329,0.090828044,-0.018078175,0.001580076,0.029894365,0.026125221,-0.023292904,-0.038799005,0.001931746,-0.032412853,-0.086126356,-0.020667606,0.03046555,0.025892987,0.020665172,0.041317855,0.045156607,-0.007385702,0.098311394,0.095923965,0.080056222,0.110809138,-0.061917816,0.120657252,0.049264236,0.045443463,-0.011649555,0.081874128,0.004264616,14,F30,PercentChange,theta
165,-0.06704971,-0.032476794,-0.034368677,0.034522296,0.034330272,-0.025677207,-0.206262128,-0.163683648,-0.120750774,-0.108479398,-0.0577173,-0.16903267,-0.125590186,-0.042827404,-0.020385528,-0.110805142,-0.075988442,-0.09759895,-0.117904798,0.031486003,-0.091753109,-0.011898242,-0.021830471,-0.052878055,0.049358845,-0.026166846,0.041126785,0.039101122,-0.130461069,-0.094712136,-0.018745039,-0.123571298,16,F30,PercentChange,theta
166,0.096578624,0.033739266,-0.048217737,0.113178916,-0.02469922,0.065343099,0.105800282,0.090410663,0.075127334,0.115151629,0.031435939,0.0616615,0.030325679,0.082796098,0.000781562,0.030635349,0.229490783,0.124404892,0.032049763,0.064665978,0.042556167,0.039156454,0.136440563,0.042651348,0.059826433,0.096559228,-0.000218569,0.02286156,-0.000397593,0.131645941,0.017969473,0.005792747,20,F30,PercentChange,theta
167,-0.114853473,-0.026074667,0.005824661,-0.055052077,-0.063518347,-0.036492747,-0.209895534,-0.10295796,-0.071554739,-0.127741213,-0.033873437,-0.176485732,-0.144927942,-0.148366212,-0.032732395,-0.042876248,-0.046911133,-0.069334048,-0.098713582,-0.059051981,-0.001166737,-0.08133713,-0.086707906,-0.106085612,-0.071263377,-0.124834823,-0.069241546,-0.043455614,-0.130201511,-0.108341953,-0.118481202,-0.059564372,1219,F30,PercentChange,theta
168,-0.013309514,0.102322506,0.023023223,0.083298238,-0.004999843,-0.045463053,0.047854106,0.155486932,0.158621141,0.088433235,0.100721723,0.076398497,0.114058658,0.010339799,0.023046327,0.011445865,0.0114365,0.028166446,0.116518881,-0.027619626,0.024757711,0.026526072,-0.015468646,0.024678811,0.015477466,0.029958466,0.01467228,-0.038603654,-0.017439495,0.018110256,0.017180147,-0.0660814,1518,F30,PercentChange,theta
169,0.032661658,-0.104673096,-0.021365879,-0.066397808,0.017446591,-0.016152737,-0.068139002,-0.012388332,-0.069270418,-0.036541007,-0.054535406,0.02471771,-0.047952267,0.005568209,-0.099068754,-0.047002608,-0.095194237,-0.062130076,-0.009721791,-0.011391549,-0.046000229,-0.102032228,-0.041391529,-0.066316948,-0.022560183,-0.040245607,-0.078339673,-0.039955522,-0.071499019,-0.11411757,-0.042231977,-0.051357732,212526,F30,PercentChange,theta
170,0.044710831,0.044544961,0.088479137,0.015385636,0.07229042,0.076628495,0.021123954,0.094397876,-0.019097149,0.009387729,0.024662317,0.091454467,0.044844942,0.051481531,0.006310054,-0.050218409,-0.113947687,-0.044152599,0.032397374,0.055149373,0.018908793,0.040129574,-0.023764322,0.009889958,0.094909673,-0.012741336,0.05071059,0.010072838,-0.003221364,-0.004153136,0.075554165,0.015520351,222324,F30,PercentChange,theta
171,0.156966772,0.040834657,-0.017377571,0.070606684,0.007066148,0.080935075,-0.005178284,0.023897764,0.006887945,0.234114133,0.038107322,0.056336158,0.107088706,0.279207681,0.064153029,0.040342119,0.083882885,-0.013354683,-0.027051036,-0.01159307,-0.024350212,-0.006783879,-0.013300751,-0.037190965,0.010906615,-0.006310783,0.036911129,0.056577631,-0.062981975,0.000908548,0.096603134,0.013344911,11,M30,PercentChange,theta
172,0.171582857,-0.065753204,0.165425583,-0.090232918,0.175717538,-0.085175073,-0.049727658,0.030882263,-0.055215737,0.109968289,-0.015046192,0.046146555,-0.018576156,0.145662298,-0.055118049,-0.046694975,0.051601387,0.007206661,-0.02500239,0.044137369,-0.135676706,-0.028610182,-0.036511465,-0.019456894,0.142688023,-0.149360222,0.121714246,-0.105302484,-0.132503024,-0.033416821,0.235274591,-0.111317267,13,M30,PercentChange,theta
173,-0.168178319,-0.063311577,-0.128914352,-0.029360242,-0.029878219,0.002524962,-0.104157964,-0.138272807,-0.124544042,-0.043465816,-0.071519659,-0.113974489,-0.100855672,-0.125883848,-0.096813009,-0.088947457,-0.113180391,-0.104330158,-0.151931002,0.02719687,-0.047868173,0.065634078,0.033018669,0.055385826,-0.063294257,0.022022189,0.080483201,0.054603851,0.072157843,-0.016639959,-0.081369325,-0.010714837,14,M30,PercentChange,theta
174,0.039285188,0.164296773,0.136773126,0.180222475,0.068685376,0.043318302,-0.08296311,-0.000676867,-0.001063856,0.02369172,0.073673894,0.009351862,-0.003285852,0.050021905,0.092955381,0.040553868,0.038994296,0.0097418,-0.01208718,0.056542474,0.031512155,0.042974163,-0.021521465,-0.006631708,0.079185121,-0.023876987,-0.006389359,0.020296563,-0.023481771,-0.045076658,0.111459934,0.035981994,16,M30,PercentChange,theta
175,0.088389302,0.147383901,0.046069315,0.077232124,0.038836124,0.009848537,-0.029081562,-0.06295538,-0.019468918,-0.042562013,0.05385654,0.014184681,0.054380179,0.127515416,0.057295138,-0.018021984,0.028426838,0.057265148,0.000329568,-0.01615322,-0.080179982,-0.068651113,0.033925763,0.038026068,0.08228946,0.016336251,-0.004308967,-0.127277911,0.122703294,0.041953166,0.072954311,0.013407781,20,M30,PercentChange,theta
176,-0.030615739,-0.019866283,-0.000625446,0.001989739,0.030764843,-0.00681989,-0.059894853,-0.040967385,0.001508415,-0.065789825,-0.064171084,0.018339623,-0.074802143,-0.05587737,-0.024816639,-0.038180224,-0.01497432,-0.005054383,-0.008832366,-0.018861638,0.020213909,-0.012697743,-0.034883512,-0.024372029,0.019334937,-0.063015866,0.02344767,-0.020368429,-0.009929459,-0.032603326,0.047480937,0.020864765,1219,M30,PercentChange,theta
177,0.025277057,0.068251717,-0.001443977,0.043341591,0.052387395,-0.047728535,0.144461354,0.110960443,0.009622884,0.109306992,0.119983915,0.151248636,0.05588154,0.153383712,0.054757953,0.039423748,0.072727671,0.1097132,0.051692324,-0.052053261,-0.004958801,0.083965671,0.044144394,0.056128626,0.046919853,0.007512227,0.051486266,-0.005385262,0.095280347,0.11092511,0.024340156,-0.017835442,1518,M30,PercentChange,theta
178,0.029943997,0.063882744,-0.009743398,-0.002244502,-0.037827725,0.008552414,0.009977292,0.017129976,0.036675204,0.001761668,-0.018660967,0.031229608,0.060449068,0.012677852,-0.010045634,-0.063252635,-0.052847122,-0.081252948,0.011185732,-0.037469306,0.018961058,-0.018126582,0.005512683,-0.025371708,0.007739389,0.028101255,-0.018472732,0.013471839,-0.047360787,-0.007069898,-0.0019826,0.004373672,212526,M30,PercentChange,theta
179,-0.022946583,0.012021005,-0.020679356,0.077831561,-0.033534137,-0.032638966,-0.051503235,-0.034050001,-0.062830018,-0.048668131,-0.126706126,-0.050772524,-0.008245864,-0.022778317,-0.070263892,0.037153502,0.01502944,0.009009799,-0.047961802,-0.068494119,-0.07221694,-0.050655526,-0.033754588,-0.031040693,-0.025817368,-0.023310328,-0.048798384,-0.033215101,0.036632838,0.041945852,-0.023434958,-0.068652395,222324,M30,PercentChange,theta
180,-0.215739521,-0.106889259,-0.0987006,0.149405008,-0.080616233,0.011191933,-0.19671974,-0.245395146,-0.24985526,-0.085124997,-0.235568133,-0.170139835,-0.20746279,-0.155790895,-0.218467914,-0.111674675,-0.05523016,0.012630846,-0.191557312,-0.096574852,0.034543035,-0.124640544,-0.161465871,-0.131694072,-0.118838253,-0.196014405,-0.081412116,-0.116801365,-0.20019573,-0.142881111,-0.080996703,0.053765108,11,F30,PercentChange,alpha
181,0.001496413,0.001488258,-0.000793861,0.073311135,0.03399972,0.098689439,-0.076358853,-0.058458198,-0.062193495,-0.030367526,-0.080411539,-0.105562176,-0.074705704,-0.016731329,0.015684342,-0.114003648,-0.102026256,-0.061576266,-0.119540361,-0.043501256,-0.036284278,0.034835743,0.033531605,0.036891881,0.060490528,0.060690861,-0.025227528,0.109390621,-0.07295546,0.003981969,0.054261378,0.079344471,13,F30,PercentChange,alpha
182,0.028837555,-0.00407137,-0.001448899,0.043660512,0.036053456,0.088060675,0.019598563,0.001308948,0.146330041,0.074766137,-0.052865082,0.082098497,0.106704081,0.131003293,0.007173852,0.023486322,0.009780599,0.025068595,0.089825681,0.142474948,0.031712501,0.031079756,0.022954099,0.014222891,0.043269046,0.089826838,-0.010391538,0.078433959,0.036793071,0.018630327,0.065453369,-0.011155108,14,F30,PercentChange,alpha
183,0.012224927,0.077429814,0.019760411,0.040803708,0.019406488,0.07100182,-0.062684415,-0.019060132,0.02036822,-0.016322268,0.022900639,-0.111057192,-0.103069955,-0.089977203,-0.063191139,-0.148338447,-0.133480413,-0.180831669,-0.087193132,0.020602069,-0.013398218,0.138886767,-0.020703856,0.092263479,0.090092997,-0.038531396,0.076521988,-0.124421504,0.15258498,0.137302303,-0.079091428,-0.093476766,16,F30,PercentChange,alpha
184,-0.116275206,-0.059537507,-0.082831983,0.069897574,-0.021107105,0.013066683,-0.039919734,-0.063557747,-0.202247612,-0.136670941,-0.221574834,-0.101037836,-0.09011392,-0.067558485,-0.085404052,-0.026912336,-0.061337947,0.138924613,-0.065602816,-0.027176948,-0.021208921,0.053978156,0.041691579,0.023352882,-0.112288158,0.001415833,-0.011455016,-0.080629519,0.126286288,0.036211963,-0.057818702,0.006105697,20,F30,PercentChange,alpha
185,0.140283974,0.033746779,0.073636181,0.118976361,0.033207698,0.076964908,0.157268649,0.202246137,0.147881908,0.02146401,0.12552492,0.239134968,0.207325071,0.132996246,0.053777557,-0.044960378,0.026396915,-0.015438228,0.173183087,0.152722974,0.103199537,0.0898306,0.107062067,0.124798852,0.065447293,0.043848333,0.089185597,0.072855129,0.081633596,0.101538568,0.047614541,0.073779381,1219,F30,PercentChange,alpha
186,0.020357528,0.042565303,0.120000084,0.108684149,-0.033865789,0.052314534,0.060638621,-0.016236514,-0.029143525,0.109505737,-0.02794904,0.080471273,0.11373743,0.012168159,-0.027232729,-0.110832576,-0.005359739,0.074375931,-0.062651669,0.036975089,-0.054040393,-0.040662999,-0.029789271,-0.042410262,-0.031869223,0.134787162,0.001921421,0.020742997,-0.02869657,0.004753285,0.013291853,-0.073686408,1518,F30,PercentChange,alpha
187,0.137664215,0.176624199,-0.029450115,0.024524369,-0.02564398,0.141153607,0.094622078,0.115346941,0.216309372,0.040302057,0.082310721,0.110466771,0.105187511,0.082766293,0.210994669,-0.025156523,0.121315025,-0.00975576,0.113469547,0.040836675,0.012010306,0.122988866,0.025216408,0.084542374,0.062224625,0.107276088,0.067900443,0.132495892,0.041092405,0.095046868,0.060204653,0.215225281,212526,F30,PercentChange,alpha
188,-0.068042902,-0.022742186,-0.108019774,-0.040411192,-0.084606031,-0.034317472,-0.030554656,0.051568742,-0.068034632,-0.007098614,0.013997306,-0.038541112,-0.059184613,-0.057147782,-0.035537605,0.171248253,0.006102956,0.014328768,-0.000312377,-0.045972251,-0.046601476,0.017907744,0.057094097,0.050095727,-0.056067758,-0.004934417,-0.082815042,-0.023035857,0.002022171,-0.016332039,-0.052974704,-0.032052451,222324,F30,PercentChange,alpha
189,0.298419178,0.284626665,0.038902621,0.31149836,-0.089759902,0.009206585,0.048528281,0.010165896,-0.063912603,-0.008793654,0.300043546,0.125969173,0.026604286,-0.047720284,0.090663707,-0.206796344,-0.159548256,-0.242145458,-0.000388642,0.001977972,-0.079445668,0.17051888,0.1084909,0.228712866,0.009875944,0.004762639,-0.164661286,0.066729158,0.152916125,-0.076198276,0.004006378,-0.092536326,11,M30,PercentChange,alpha
190,-0.185509593,-0.125470361,-0.239406283,-0.040244527,-0.121821008,0.011469793,-0.174189834,-0.075400447,-0.101994138,-0.08309447,-0.072642934,-0.1606873,-0.194944526,-0.132651999,-0.049203748,0.047535393,0.086891898,0.088580825,-0.151641084,-0.14064933,-0.131417978,-0.091504343,-0.067210426,-0.073601889,-0.16038142,-0.101123359,-0.177785064,-0.043613919,-0.111047607,-0.112765845,-0.120825361,0.004467398,13,M30,PercentChange,alpha
191,0.041810925,0.101367018,0.076580957,0.155588374,0.034988815,0.066390335,0.034449471,0.220503994,0.177923909,0.035624407,0.075324928,0.117356142,0.099496169,0.122765354,0.10112437,-0.073887477,-0.018623177,-0.015821864,0.201706922,0.015417984,0.022300391,0.046406266,0.009144261,0.042578441,0.111607722,0.102327106,-0.023862342,-0.034900126,0.056690913,0.104330266,0.017514345,0.015202469,14,M30,PercentChange,alpha
192,0.122745183,0.038369169,0.05111817,0.039882522,0.14917525,-0.020582187,0.049911094,0.223942348,-0.055104538,-0.016136359,-0.006635725,0.089755331,0.06816295,0.054440091,0.030298772,0.077419419,-0.06044526,-0.038835742,-0.085993052,-0.034146387,-0.004226532,-0.010797708,-0.042278215,-0.027368684,-0.122756748,-0.068219564,0.097832938,-0.175891259,0.025166542,-0.000867208,0.026758029,0.049270258,16,M30,PercentChange,alpha
193,-0.140402318,-0.155619504,-0.028654153,-0.090902535,-0.080148676,-0.145521139,-0.06164789,0.069777367,0.098677986,-0.134602994,0.013981353,-0.176497043,0.034439562,0.026339988,-0.008803803,-0.180859943,-0.057136484,-0.17582541,-0.10930837,0.004109247,0.010930393,-0.003684363,-0.057739459,0.027162426,0.084946181,-0.059367193,0.019570152,-0.036256085,-0.04306634,-0.07054793,-0.05160124,0.135089324,20,M30,PercentChange,alpha
194,-0.133423521,-0.068849172,-0.136118241,-0.030704751,-0.084261916,-0.051636685,0.05223658,-0.096444522,-0.077552065,-0.137162698,-0.03289564,-0.034318042,0.01318373,-0.06087462,-0.068937386,0.205188996,0.120629726,0.118848661,-0.064699924,-0.048325743,-0.103333212,-0.117453634,-0.052448867,-0.070472288,-0.035030214,-0.025790457,-0.08942097,-0.079036885,-0.052815418,0.028208758,-0.059429824,-0.096534902,1219,M30,PercentChange,alpha
195,-0.103497644,-0.115726419,-0.011477083,-0.113283784,-0.037314368,-0.089068453,-0.077779354,-0.072517588,-0.015602301,-0.143095155,-0.156446069,-0.094988806,-0.092964658,-0.180947397,-0.016315621,-0.122758389,-0.14427007,-0.078420768,-0.126734617,0.035937239,-0.039288541,-0.082040831,-0.025124475,-0.053411453,-0.051792905,-0.041706692,-0.093128199,0.015160454,-0.046889284,-0.0878182,-0.117860483,-0.030241668,1518,M30,PercentChange,alpha
196,-0.021435366,0.040019106,-0.026920028,-0.070085562,-0.068469983,-0.064359828,0.108759143,-0.075705699,-0.019864401,-0.089900677,-0.019904559,0.039898404,0.026834754,-0.074700498,0.062045243,-0.117434141,-0.002562362,-0.131113323,-0.008653286,-0.111897483,-0.015573312,-0.013269849,-0.053520901,-0.066504078,-0.043210834,-0.018545471,-0.064576343,-0.015321395,-0.053136163,-0.037827581,-0.030439978,-0.005383764,212526,M30,PercentChange,alpha
197,0.092461425,0.001711396,0.060886764,0.01740543,0.047353804,0.018661044,0.040691987,0.03063206,-0.017264277,0.034302665,-0.017811453,0.01040264,0.005779616,0.049624888,-0.003714988,0.172921768,0.215893547,0.09440136,0.00437769,0.077448681,0.061971618,-0.002961121,0.015898253,0.022135493,0.009463931,0.007047773,0.082809436,0.011551083,0.002293408,-0.0002453,0.05147994,0.017090099,222324,M30,PercentChange,alpha
198,0.068325601,-0.152892343,0.110641571,0.256739699,0.065558374,-0.003075263,-0.061914587,0.017571821,-0.024752096,-0.024958999,-0.264135615,0.056685152,0.064124072,-0.033823911,-0.126871705,-0.289110296,-0.18724507,-0.269074096,0.094426825,-0.15544638,-0.17282666,0.062408282,0.008067579,0.045727441,0.036062671,-0.085199824,0.098595721,-0.059762073,-0.03221511,-0.104387492,-0.127709206,-0.047210938,11,F30,PercentChange,sigma
199,-0.010889545,-0.060050969,-0.024286312,0.129071451,-0.025385779,0.055276345,-0.060175317,-0.098719374,-0.112874817,-0.018187451,-0.128649082,-0.086492001,-0.089730437,-0.054373952,-0.05090944,-0.086397505,-0.108173275,-0.121097791,-0.135846266,-0.027488228,-0.054659148,-0.090120262,-0.083913768,-0.095882914,0.022887036,-0.044848669,-0.003992907,-0.043407408,-0.100406633,-0.064910476,-0.03495303,0.027509736,13,F30,PercentChange,sigma
200,-0.108074671,-0.077088183,-0.123920122,-0.003635379,-0.091448632,-0.040617825,-0.033104731,-0.130345301,-0.0332178,0.000163205,-0.107516595,-0.074191198,-0.098438322,-0.11746022,-0.101046676,-0.176008352,-0.062829491,-0.167869364,-0.064927946,-0.029880674,0.135427061,-0.027918546,-0.004633731,0.051098394,-0.141541631,-0.005861522,-0.029271666,-0.022852281,0.042348875,-0.079049731,-0.067912528,-0.020490576,14,F30,PercentChange,sigma
201,0.088940549,-0.090496034,0.188926582,-0.023540346,0.119247191,-0.109067248,0.074318006,-0.044085941,0.039512664,0.343235294,0.117772602,-0.124351775,0.210203805,0.252896353,-0.025435723,-0.056819309,-0.087504886,0.010846088,0.043730546,0.233695864,0.044010377,0.134980052,0.059123026,0.186784802,0.057519116,-0.008351676,0.083202927,0.0256692,0.296971264,0.142007029,0.081920681,0.04382072,16,F30,PercentChange,sigma
202,0.00184931,-0.112819402,-0.058283786,-0.003974829,-0.110155058,-0.059619071,-0.10618211,-0.017506886,-0.169381806,-0.095258973,-0.272071045,-0.110443747,-0.151144529,-0.076139092,-0.168569359,-0.144983367,-0.07730741,-0.106530315,-0.089478246,-0.018564535,0.037887731,-0.053638002,-0.043696106,-0.087189398,-0.167651328,-0.027585896,-0.053145455,-0.010149406,-0.032047861,-0.124087377,0.022209917,0.016864996,20,F30,PercentChange,sigma
203,-0.05525033,-0.131753866,-0.047669014,-0.055894399,0.018254804,0.018523374,-0.113004383,0.082821007,0.005737208,-0.033978775,-0.016032109,-0.035020416,-0.117184876,-0.058390635,-0.014528697,0.042004715,0.035162957,0.009234349,0.019146856,0.02756111,0.047121505,0.033832475,-0.002897022,0.043064871,0.031447515,0.020687993,0.026581463,0.030781715,-0.02400443,-0.058483624,0.022760056,-0.033001146,1219,F30,PercentChange,sigma
204,0.021563052,0.019954129,-0.045973792,0.058968596,-0.077373592,-0.045972801,-0.028321986,0.067846656,-0.036115832,0.050114863,-0.065906149,0.004099299,-0.033236725,-0.047793716,-0.031413632,-0.021894948,0.131996589,0.035645241,-0.016724302,-0.07372171,0.048383107,-0.059302805,-0.082858346,-0.098494143,-0.098380867,-0.003924819,-0.040849788,-0.12596054,-0.006485963,-0.002755741,-0.087269586,-0.095591721,1518,F30,PercentChange,sigma
205,0.019463705,-0.000759682,-0.014225384,-0.021159127,-0.003580029,0.045426915,-0.015744366,0.006041875,-0.00737288,-0.015449864,-0.023457586,0.003070625,0.001092618,-0.037400517,0.010562356,-0.074599759,-0.071137103,0.058749608,-0.060936771,-0.055747756,-0.012534419,-0.084364463,-0.033939161,-0.052418004,-0.036191965,0.033742651,-0.070162214,0.018835146,-0.009684312,-0.079167954,0.005164128,0.022161979,212526,F30,PercentChange,sigma
206,0.0014597,-0.019652756,0.078060566,0.000343382,0.037101826,-0.029323221,0.001801036,-0.007809243,-0.086454518,-0.033610978,-0.027617192,-0.016124411,-0.047903317,-0.040529427,-0.015526634,-0.073768958,0.017240289,0.012917719,-0.069179482,-0.011172261,-0.045621539,0.001100916,-0.00198684,0.000751214,0.0326325,-0.015275474,-0.00246704,0.00475143,0.0131457,0.007209178,-0.036883748,-0.033653552,222324,F30,PercentChange,sigma
207,-0.030838139,0.018871934,0.014952357,0.062596426,-0.069219346,-0.061575634,-0.087020094,-0.174520185,-0.138692492,-0.131173556,-0.064186936,-0.076392065,-0.088886972,0.018329751,-0.134584272,-0.05379006,-0.136084632,-0.105316602,-0.009134187,-0.201630122,-0.163334431,-0.098743828,0.10453846,-0.045893365,-0.02136637,0.166183398,-0.161664156,-0.083766267,0.139013676,0.010131502,-0.040274481,-0.052423819,11,M30,PercentChange,sigma
208,-0.039519998,0.047783653,-0.101560954,-0.023002354,-0.081714052,-0.078118963,-0.015371816,0.09196335,0.33920334,-0.0637814,0.114426206,0.075546168,0.139306635,-0.076020435,0.062518761,0.108591226,0.172983423,0.070203038,0.24167663,-0.039030059,-0.06066144,-0.024871157,-0.011318238,-0.015255967,-0.035938733,-0.10036221,-0.082048656,-0.051302746,-0.04531117,-0.039244659,-0.063325181,0.050062158,13,M30,PercentChange,sigma
209,-0.074802475,0.032220844,0.02175084,0.074608776,-0.045436584,0.028202515,0.120087294,0.26042209,0.096480912,0.125701967,0.087261801,0.128150528,0.087448245,0.109026989,0.066810254,0.132385989,0.014144377,0.103511709,0.061752513,0.043574635,0.040140675,0.002687666,0.059210843,0.058780222,-0.021631804,-0.011103411,0.046664875,0.058245275,0.106536537,0.076644546,-0.003426724,-0.004903484,14,M30,PercentChange,sigma
210,0.129518503,0.157581685,0.031517586,0.03975066,-0.017158536,0.063687683,-0.057563165,0.168151449,0.057897767,0.070785774,0.007053345,0.022693494,0.045753499,-0.019287641,0.056126795,0.015278841,-0.079503668,0.007777754,-0.127811945,-0.062316651,-0.043634259,-0.013656219,0.025982269,-0.037863759,-0.033341226,0.013110072,-0.024923101,-0.043419166,-0.015844188,-0.068220971,-0.050197442,-0.017639935,16,M30,PercentChange,sigma
211,0.101227141,-0.071635488,0.112646268,-0.012874588,0.101274343,0.019639607,0.095361727,0.158097816,0.207878396,0.101132397,0.067697357,-0.024602622,-0.008135847,0.218188107,-0.01610038,0.044128178,-0.072734981,-0.153761369,0.23261103,-0.008509882,0.109250895,0.05757157,0.046908662,-0.026450069,0.046368651,0.024396238,0.169494484,0.006176368,0.006363502,0.063744406,0.113786191,0.065840018,20,M30,PercentChange,sigma
212,-0.06742728,-0.107659754,-0.012627803,0.004654073,-0.008954479,0.035042042,-0.059980199,-0.070042939,-0.044258851,-0.000706522,0.001297125,-0.083239033,-0.039404712,0.01204741,-0.019923357,0.301081528,0.445075779,0.412858634,-0.043470421,0.087575787,0.127974841,0.037730901,0.063086226,0.036864936,-0.027721829,-0.023236016,-0.02576146,0.087382959,0.056780237,-0.00359276,0.018958271,0.112494511,1219,M30,PercentChange,sigma
213,-0.087348986,-0.024289587,0.02197174,-0.018074681,-0.093243117,0.017848244,-0.037792408,-0.048152325,-0.004242755,-0.110605373,-0.062242556,-0.096224359,-0.023078257,-0.152921398,0.009904656,-0.133112156,-0.144406556,-0.081299211,-0.068950255,-0.08492956,-0.055277862,-0.099268929,-0.010250709,-0.018379771,-0.01322472,0.043514588,-0.106917764,0.003911883,-0.03970198,0.022911519,-0.114137778,0.012314518,1518,M30,PercentChange,sigma
214,0.032406658,0.053004538,0.013785268,0.049122463,-0.047362154,0.015702624,0.004332849,0.014473782,-0.005683548,0.022774761,-0.037379098,-0.059921762,-0.053718836,0.043219919,-0.040834485,0.008019994,-0.012975098,-0.000144356,-0.045130543,-0.086155614,-0.048323446,-0.035309272,-0.016339075,-0.018098946,-0.062457742,0.004839057,-0.05991347,0.010650451,-0.005085131,-0.03810312,-0.005252652,-0.036779996,212526,M30,PercentChange,sigma
215,-0.024370211,-0.062607078,-0.084252684,-0.054494182,-0.026293127,-0.024265123,0.020036175,-0.004431586,0.026609639,-0.023238625,-0.00464684,-0.000791908,-0.010277933,-0.026425286,0.019967733,0.157541554,0.248540657,0.212218403,0.074252721,0.029075786,0.013683147,-0.000694496,0.010507488,0.038946402,-0.029336742,0.003146485,-0.004968158,0.018392308,-0.009666337,-0.006486785,-0.049510879,-0.016616444,222324,M30,PercentChange,sigma
216,0.144168451,0.025133316,0.194529272,-0.023723282,0.052658493,0.044890101,0.002749016,-0.09747563,-0.133246829,-0.007756274,-0.026445475,0.015292709,0.081280457,0.035986539,0.080200088,-0.132296203,-0.091281106,-0.171471331,-0.081074093,-0.092616337,-0.092864794,0.119839053,0.079738938,0.081011913,0.066906285,-0.028695539,0.049574218,-0.011473247,0.161474945,0.116598733,0.009096278,-0.035049093,11,F30,PercentChange,beta
217,0.066633394,-0.046595655,0.020699078,-0.071411492,0.049289171,-0.024135007,0.099355915,0.002918254,0.033512665,-0.010318188,0.089116409,-0.066856822,-0.002756042,0.052905755,0.126828348,0.087165234,-0.117149323,-0.052193053,-0.082344185,0.077642233,0.057856029,0.073121164,0.096064358,0.085078264,0.018019643,-0.076089726,0.032372251,-0.01937697,-0.039874004,-0.056081745,0.005823616,0.055334193,13,F30,PercentChange,beta
218,0.066550907,0.000907869,0.020072676,-0.021828626,0.045684667,0.060097132,0.08773475,0.101235096,0.063622072,0.021637007,-0.002773254,0.093281916,0.023521113,0.058707918,-0.002625277,0.041097308,-0.064077121,-0.003000661,0.161617337,-0.023790886,0.067438345,-0.08702133,-0.042749004,-0.082032396,-0.095609605,0.005390528,-0.017732944,-0.000886201,-0.094146003,-0.061260158,0.079694298,0.004977762,14,F30,PercentChange,beta
219,0.14192623,-0.176980028,0.094343291,-0.116630796,0.035393922,-0.120640836,-0.111057541,-0.194975623,-0.210449842,0.224282984,0.080216471,-0.217538437,-0.218878177,0.195260431,-0.123523648,0.108983224,-0.04237059,0.00440203,-0.239328668,0.036809169,0.04248126,0.060236723,0.063402298,0.133397295,0.052285631,0.056277516,0.099522907,-0.008454806,0.26474327,0.265552094,0.073602745,-0.039680457,16,F30,PercentChange,beta
220,0.008367638,0.04035535,-0.033552517,-0.028030808,0.029059944,-0.054714207,-0.036983493,0.034125196,-0.091024003,-0.03052936,-0.096871569,-0.113916696,-0.086148532,-0.037606718,-0.088119387,-0.070857699,-0.045309226,-0.037522687,-0.082066267,-0.018375274,0.00909526,-0.03770575,-0.073035396,-0.031718882,-0.027449591,-0.024290816,0.079554857,-0.008072557,0.012023663,-0.100981855,-0.116713248,0.021112586,20,F30,PercentChange,beta
221,-0.042288749,-0.003709134,-0.033702525,0.03409082,0.067732479,-0.016633417,-0.088518924,-0.011263466,-0.018642399,0.010635521,-0.021940362,-0.06479842,-0.068783301,-0.021458432,-0.046777451,0.052343123,0.109414538,-0.002492527,-0.018880818,0.011699501,0.003579479,0.066874928,0.024110761,0.059129921,-0.014671983,-0.051062825,0.029758612,0.012786924,0.003826012,-0.050728759,0.021407763,-0.020192504,1219,F30,PercentChange,beta
222,0.016278139,0.065730069,0.045900743,0.021165443,0.02690937,-0.076883256,-0.005972978,-0.012354754,0.097462373,0.076879959,0.043727985,-0.003545085,0.051929855,0.074901941,0.012351594,0.022588104,0.16255203,0.237214264,0.10254841,-3.54E-05,-0.049347309,-0.023363273,0.032471897,-0.012869723,-0.014402994,-0.001277767,-0.081516587,-0.013783049,-0.015520196,0.063980339,0.014628143,-0.040478005,1518,F30,PercentChange,beta
223,-0.074498602,0.063622939,-0.045809722,-0.051793727,0.005886917,-0.022012535,0.013547533,0.003806516,-0.018280405,-0.074236337,0.026237125,-0.025728573,-0.025773582,-0.068740985,-0.027659632,-0.006617744,-0.097978579,-0.045927705,-0.050938629,0.016758011,-0.034241493,-0.03935808,-0.05505517,-0.079715446,-0.008701769,0.005838506,-0.043055649,-0.022619123,-0.069860188,-0.049375205,0.005233033,-0.037655717,212526,F30,PercentChange,beta
224,0.028084394,-0.009829313,-0.042636076,-0.048935966,0.000989481,-0.025706929,-0.01125023,-0.038218114,-0.039496888,-0.012193381,-0.037542855,0.023486163,-0.000810278,0.009765137,-0.030190709,0.065678862,0.03783933,0.040505903,-0.009930064,0.00843168,-0.073404658,-0.054661136,-0.075408566,-0.059434248,-0.055441754,-0.057665306,-0.013002813,-0.056255542,-0.060333446,-0.063382658,0.024226237,-0.018326455,222324,F30,PercentChange,beta
225,0.045171043,0.086165773,0.012753854,0.154218818,-0.087850058,0.030652617,-0.006741763,-0.183262672,-0.079611097,-0.009073219,-0.016687983,-0.125255865,-0.006399067,0.062174347,0.041431056,-0.120319108,-0.27187602,-0.184704849,-0.012256143,-0.075070253,-0.104255768,-0.004896415,0.073007599,0.048537305,0.077034559,-0.051628455,-0.063440761,0.038292708,-0.020667198,-0.049265281,-0.045260408,-0.01942441,11,M30,PercentChange,beta
226,0.025455843,0.105390881,0.09770643,-0.029594428,0.067903757,0.017716662,0.121939122,0.207056485,0.21245065,0.052849269,0.092523261,0.063451966,0.236299089,0.08325523,0.116009726,0.271264609,0.204075976,0.285356496,0.348963793,0.098151197,-0.065794774,0.12653835,0.129500089,0.138953617,-0.021392132,0.09094396,0.042115434,0.110778541,0.087673679,0.057281286,0.000120713,0.056446747,13,M30,PercentChange,beta
227,-0.040321591,-0.059286594,0.018208573,0.004873139,-0.031425017,-0.029417307,0.032865344,0.193338539,0.093814423,0.018358324,0.00067126,0.067718016,-0.061336753,0.036466235,-0.038113657,0.331773991,0.264174364,0.278282828,0.171396693,-0.016994195,-0.078134692,-0.014842226,0.030885426,0.012512475,-0.047875472,0.003861666,-0.060580767,-0.036391308,0.012472074,0.014675658,-0.028735492,-0.040986304,14,M30,PercentChange,beta
228,0.066249937,0.221909238,-0.044351912,-0.06365082,-0.05383607,-0.046237069,0.014955628,-0.166834153,-0.059015956,-0.112201969,0.020797849,0.085247186,0.076975332,-0.141424756,-0.011620601,-0.159296347,-0.189336969,-0.205666906,0.032665155,-0.094445067,-0.124608168,-0.152426104,-0.000167099,-0.100573262,-0.111119515,-0.092740831,-0.065341384,-0.115665679,-0.019448705,0.040927857,-0.087538559,-0.08932871,16,M30,PercentChange,beta
229,0.060389083,-0.064686058,0.112591892,-0.048040947,0.089922961,-0.013558916,0.018783852,0.298828542,0.166012599,-0.02200692,0.024395843,0.049971995,0.178316349,0.129724611,0.044236908,0.12106147,-0.031216884,-0.09361906,0.055287396,0.073863161,-0.057992414,0.043855823,-0.026117249,-0.089359759,-0.051372024,0.038610578,0.058684227,0.041730514,-0.002907112,0.041365402,0.046863578,0.028666737,20,M30,PercentChange,beta
230,0.021136007,-0.044902774,0.01619845,-0.013203521,0.051445639,0.096164595,0.059277641,-0.072195873,0.003715648,-0.032318704,0.041541833,0.031753448,0.020931863,-0.005474738,0.045153385,0.266469077,0.767928715,0.419333051,-0.0367777,0.100452052,0.03581002,0.030591103,0.031904304,0.053134683,-0.021571526,0.000242276,0.032641833,0.071772759,0.01110215,0.013460641,0.065742004,0.11134022,1219,M30,PercentChange,beta
231,-0.065224125,-0.076739533,0.033765032,-0.063392045,-0.11018654,-0.097237177,-0.031261202,-0.113370564,-0.014169375,-0.095238155,-0.059962158,0.05418191,-0.014905487,-0.126388059,-0.089758457,-0.039466556,-0.078440049,-0.078759939,-0.033856618,0.06112672,0.059565367,0.003437295,-0.02896732,-0.039317845,-0.052719752,-0.129920499,0.019041425,0.023795111,0.030426994,0.005373341,-0.127540491,0.013272942,1518,M30,PercentChange,beta
232,0.023191116,0.019017234,-0.008822834,0.05204768,0.032469734,0.034168288,-0.045806182,-0.03266967,0.04508903,-0.072904954,-0.036923793,-0.026009431,0.016153184,-0.039058883,-0.001071584,-0.074124012,0.008332591,-0.081690029,-0.012822159,-0.0041168,-0.039775903,-0.000577472,0.010604045,0.026480591,-0.020714665,0.010606917,-0.029625772,0.002148102,0.033719881,-0.054445297,-0.022347545,-0.052276155,212526,M30,PercentChange,beta
233,-0.043165398,0.037156231,-0.022612177,0.022717253,0.015415551,0.0507986,0.089340486,0.049011167,0.051454248,-0.017316428,-0.016271846,0.037607192,0.047146101,-0.059016591,0.035690666,0.206234763,0.227762549,0.222224213,0.117319282,0.004621338,0.030599509,-0.030847257,0.014934321,0.020715723,-0.002636903,0.079442738,0.017187416,0.076098412,0.061204144,0.079929262,-0.023097763,0.056348355,222324,M30,PercentChange,beta
234,0.22291837,0.106911878,0.192768268,0.17970152,-0.009371075,0.124418294,0.033525559,-0.084627282,0.0291305,0.064313814,0.025021131,0.011643104,0.038233264,0.271630963,0.113606934,-0.148329551,0.013517814,-0.075495852,-0.101019508,-0.147834313,-0.019598425,0.129642734,0.204564364,0.139715141,0.007395116,0.311940715,-0.027157652,0.085189082,0.225233598,0.262406481,0.141407001,0.017619658,11,F30,PercentChange,gamma
235,0.032158531,-0.027867326,0.00769204,-0.060537069,0.060959292,0.116207905,0.040282789,0.056949767,0.093771798,0.053237541,0.114380836,-0.007503913,0.072765137,0.107325288,0.170954435,0.105022437,0.07660502,0.156726867,-0.043183038,0.183989211,0.094823699,0.15273647,0.153537778,0.150274549,0.024864068,-0.0396896,0.131020458,-0.115894291,0.029677579,-0.069800147,0.139943725,0.239332387,13,F30,PercentChange,gamma
236,0.201119536,0.053310392,-0.004907386,0.003819596,0.010745248,0.009173214,-0.01029382,-0.064950528,-0.01134268,7.17E-05,0.006119496,0.224558412,0.019031963,-0.043012928,-0.010846541,0.088896962,0.005614675,0.074401994,0.113980201,0.004231393,-0.053944551,-0.115077684,-0.191925013,-0.152782328,-0.03470487,-0.050846467,-0.04386617,-0.163267509,-0.088721772,-0.012837026,-0.132645529,-0.075112495,14,F30,PercentChange,gamma
237,0.138526254,-0.171884911,0.061573874,-0.12928482,0.170542877,-0.138877813,-0.090137861,0.014572928,-0.141446104,0.170265724,-0.061544943,-0.187426499,-0.071911339,0.178432267,-0.102989323,0.135168654,0.031437449,0.061645653,-0.204227651,0.07152121,0.143385579,0.215189583,-0.00523438,0.221797848,0.140601342,-0.012919989,0.188121082,-0.050924531,0.275251371,0.184023125,0.077820402,0.057991444,16,F30,PercentChange,gamma
238,0.009410635,-0.008384941,-0.043087127,0.099700816,-0.110338467,0.012237322,-0.001971213,-0.099147298,-0.029099755,0.006344547,-0.022523298,-0.084831817,-0.039933411,-0.081505466,-0.131826892,-0.155508766,-0.087948914,-0.179403182,-0.058533936,-0.041461026,-0.085230034,0.021369769,-0.064869179,-0.008239449,0.036868061,-0.089178244,-0.070977962,0.001963344,-0.00949937,-0.121738736,-0.047221328,-0.005581513,20,F30,PercentChange,gamma
239,-0.085437302,0.006530628,-0.002678556,-0.081804136,0.113584579,0.00582401,-0.096182515,-0.076145342,-0.058648625,-0.010491239,0.049378878,-0.106490068,-0.06644443,0.040112641,-0.003524213,0.02780164,0.06089743,0.061345517,0.001577345,0.081688766,0.091690144,0.191261198,0.067038456,0.120861412,0.099701678,-0.052596088,0.06633849,0.041950595,0.020895329,-0.076097004,0.076558232,0.076437141,1219,F30,PercentChange,gamma
240,0.13516193,0.158502993,0.028158045,0.134308732,0.049134215,0.055092248,0.092123924,0.176316463,0.242233342,0.14538723,0.139527502,0.056535751,0.097943305,0.16643429,0.117711948,0.317564338,0.350019159,0.446630709,0.169791397,0.131494588,0.106215857,0.077979433,0.131989912,0.042438617,0.026047732,0.087141649,0.021737455,0.053195691,0.123147899,0.082668727,0.077343616,0.099257783,1518,F30,PercentChange,gamma
241,-0.078072852,0.160167395,0.030201147,-0.008502507,-0.024655783,0.00287702,-0.00555478,-0.07622726,-0.013161594,-0.078412919,-0.007760248,-0.070525169,-0.000571557,-0.068618078,0.025120784,-0.09773764,-0.0809885,-0.005152999,-0.051134243,0.004107118,-0.055886103,-0.068022446,-0.101430831,-0.099182735,-0.016482638,-0.093518491,-0.086174783,-0.003033694,-0.144868329,-0.064208087,-0.02135363,0.012892996,212526,F30,PercentChange,gamma
242,-0.105431172,-0.09649862,-0.06469063,-0.029852958,-0.159673162,-0.085732689,-0.118044511,0.04453005,-0.098655342,-0.099170773,-0.192976408,-0.069171647,-0.119770098,-0.059520108,-0.157261807,-0.054843095,0.000426004,-0.047204151,-0.10559659,0.049356998,-0.101424942,-0.138654688,-0.048883562,-0.082267099,-0.115057243,-0.027977958,-0.057078629,0.000140614,-0.060736116,-0.068381414,-0.042200256,-0.092826099,222324,F30,PercentChange,gamma
243,0.000472113,0.06116029,0.001606031,0.085710398,0.154522185,0.189530957,0.06154887,-0.089415138,-0.06619658,0.110971169,0.097152458,-0.056071049,0.023020411,0.128557927,0.08693868,-0.10410044,-0.327879996,-0.206652657,-0.042064912,0.273508871,0.088027559,0.008770437,0.098272004,0.023631945,-0.022978354,0.005642532,-0.035044611,0.094473887,-0.021390419,-0.048105797,0.024351109,0.099535938,11,M30,PercentChange,gamma
244,0.083101091,0.108507452,0.018912848,-0.056409529,0.009030148,0.033966374,0.15958951,0.263680251,0.437020784,0.15837971,0.108988789,0.260045125,0.295715685,0.200100423,0.055152131,0.281167107,0.09780025,0.262010509,0.402333442,0.128957047,-0.011812895,0.038953623,0.025163714,0.032570648,-0.103005176,0.133677722,-0.066025258,-0.007815887,0.033709328,-0.025206882,0.029449824,-0.017703208,13,M30,PercentChange,gamma
245,0.108624576,-0.085991948,-0.04643849,-0.09526563,-0.015981057,-0.029183596,-0.007680652,0.085658066,-0.079019319,0.036897201,-0.077004624,0.005750886,-0.125286487,0.006936234,-0.078050854,0.345459399,0.155892712,0.263402633,0.043861475,-0.002850276,-0.069044193,0.034102608,0.06507329,0.044276474,0.024600578,-0.056068279,0.003205053,-0.070729816,0.022910839,0.053970121,0.009845789,-0.000289314,14,M30,PercentChange,gamma
246,0.017520549,0.08677899,0.099932282,-0.016978552,0.011630161,-0.040897877,0.013778853,-0.04223478,0.112921452,0.145206626,0.082233263,0.068899422,0.039310964,-0.000839786,0.101270046,-0.036340531,-0.015019652,-0.062479748,0.011680406,0.143875849,0.036738881,0.046580171,-0.040797496,-0.018408335,-0.122102752,-0.038387222,0.021352272,-0.107678873,-0.020375603,0.045563969,0.007299102,-0.14358472,16,M30,PercentChange,gamma
247,0.001837653,0.019389262,0.060937558,-0.073318825,-0.043402989,0.020624313,0.002364286,0.045021234,0.018359234,-0.096466832,0.032423076,-0.109039351,0.031549377,-0.028406039,0.045592465,0.089934517,0.026720717,-0.06192479,-0.031555717,-0.045394202,0.115528213,-0.008295585,-0.106903683,-0.103644382,-0.031764764,-0.070608915,-0.011700018,0.061721462,0.05754665,-0.059224141,-0.052183173,-0.001283719,20,M30,PercentChange,gamma
248,0.094852872,0.04184952,-0.031699563,-0.041293036,0.135307864,0.148360859,0.118576881,-0.138703077,-0.025369767,-0.006909042,0.153751843,0.023304785,0.016345088,0.072447476,0.103352866,0.45359513,0.895513795,0.544375702,-0.013509493,0.186721599,0.134210669,0.143318127,0.130734025,0.1255107,0.108055173,0.059534517,0.057004225,0.183812837,0.099746669,0.109411985,0.102414139,0.238190656,1219,M30,PercentChange,gamma
249,0.009593907,-0.03148675,-0.100032993,-0.023526551,-0.069438651,-0.115925712,-0.005458145,-0.036334445,0.00393758,-0.074555373,-0.083735805,-0.018230141,-0.090749092,-0.11111969,-0.009443265,0.077582735,0.096132558,0.03064579,-0.061353395,0.133100056,0.14831316,0.008041342,0.024904925,0.107078799,-0.0445019,-0.104433307,-0.009508512,-0.032172196,-0.015507677,0.070094866,-0.068987262,0.010782132,1518,M30,PercentChange,gamma
250,0.055518415,0.083079442,-0.001238534,0.110832068,0.04119754,0.06427204,-0.053011496,0.032950973,0.055431637,-0.024393835,0.038727907,-0.032155477,0.040267534,0.044941068,0.095806546,-0.043866738,-0.038889107,-0.155659656,0.055392756,0.09761722,0.06166511,0.042711858,-0.004910511,0.034150483,0.058190385,-0.014772839,0.04486231,-0.024965436,0.046613574,-0.047633623,-0.045927626,0.04657674,212526,M30,PercentChange,gamma
251,-0.063784149,-0.012568943,-0.003194739,-0.038942288,0.032550825,-0.012854235,0.082790269,0.05163918,0.092225584,0.019413264,0.023983263,0.096847134,0.064502831,0.02049186,0.043723695,0.25965139,0.288531746,0.286405857,0.049968835,0.019822721,0.042100683,-0.032778305,-0.060359382,-0.042523489,-0.01680335,-0.00041088,0.035160435,-0.055858997,0.029629635,0.041920098,0.021469163,0.021488384,222324,M30,PercentChange,gamma
252,-0.17473353,-0.209659837,0.237305982,-0.119453086,0.14767139,-0.140156366,0.089272505,0.107722614,0.189743901,-0.100470529,0.026954695,0.03741245,0.027489516,-0.14816159,-0.071603917,0.682992637,0.547250276,0.613565181,0.20284141,0.09966006,-0.075211199,0.029873087,0.18345148,0.113619389,0.15510214,0.078536658,0.177357317,0.119255267,0.118366371,0.293275987,-0.038920014,-0.099076592,11,F30,PercentChange,dt
253,-0.086306064,-0.048769488,0.07227547,-0.067459974,-0.036062721,0.098430237,-0.071520392,0.066675657,0.118311694,-0.091752898,0.201856776,0.032575331,-0.052303039,-0.142597485,0.089280109,0.05854695,0.322874348,0.352625194,0.037506929,0.118637965,0.248020945,0.160314894,0.170160491,0.151781765,0.132150126,0.029082982,0.011901913,0.059004447,0.117771165,0.114071217,-0.105614002,0.094612951,13,F30,PercentChange,dt
254,0.012032985,0.100072573,0.0049043,-0.055443312,-0.123273386,5.05E-06,0.001920887,-0.005065238,-0.056607847,0.11930508,0.160678093,-0.039694627,-0.011542598,0.081975868,0.229191622,-0.05745325,-0.049140262,-0.046367442,-0.086558851,-0.140345741,0.0229546,-0.10047999,-0.090006879,-0.040533439,-0.101773082,0.048124972,-0.217249555,-0.002835092,-0.128889048,-0.011757619,-0.111493853,0.100577536,14,F30,PercentChange,dt
255,0.027344673,0.159549881,0.032497543,0.220902857,0.00571192,0.116222382,0.348856594,0.277891206,0.246959539,0.153237137,0.019723142,0.257440442,0.221413034,-0.046763076,0.056730295,0.149502023,0.101691214,0.123381061,0.225901451,-0.087145587,0.065390925,0.038912692,0.075634381,0.017893575,0.034554283,0.096035797,-0.033975564,-0.033196804,0.000351948,0.147707502,0.012912145,0.088038873,16,F30,PercentChange,dt
256,0.08081087,0.012960584,0.052031794,-0.083273575,0.132593451,-0.064150129,0.013373392,-0.06938133,-0.039942168,-0.059738823,-0.008271148,0.042377726,0.055209762,-0.120152506,0.061148624,0.04628671,-0.154618847,-0.174127974,0.038461332,0.009253447,-0.137382345,-0.091412599,-0.178346316,0.038390407,0.049359908,-0.080434408,0.070756231,0.108313924,-0.003904399,-0.040072075,-0.060732793,-0.077544087,20,F30,PercentChange,dt
257,0.222757593,0.028032145,0.095344923,-0.096636483,0.031676104,0.016998887,0.118684827,0.135270029,0.176335711,0.184432024,0.095237344,0.282034535,0.127737506,0.115423614,0.020512273,0.083869109,0.058636971,0.070828331,0.174984051,0.084624835,-0.000916686,0.079296988,0.048411377,0.125697862,0.020318376,0.136369328,0.013895088,0.081532055,0.169726526,0.11058841,0.139816631,-0.024082407,1219,F30,PercentChange,dt
258,0.004809784,-0.108429094,-0.05274896,-0.119516699,0.048406952,0.05147883,-0.111472657,-0.185472347,-0.129314546,-0.097355771,-0.104389752,-0.067726595,-0.096206372,-0.016178405,-0.034418396,0.037140768,-0.140581091,-0.07550056,-0.159390029,-0.027008769,0.027677697,0.065154688,0.031073144,0.032479369,0.025793536,0.049204243,0.043476732,0.081980729,0.045822022,-0.060172564,0.098457541,0.150167798,1518,F30,PercentChange,dt
259,-0.027533736,0.081964229,0.096975523,0.182761764,0.07576553,-0.00584133,0.005705707,-0.053256715,-0.019277814,0.106319824,0.000715448,-0.056555151,0.024104733,0.011374857,0.027731559,0.070583106,0.170127443,0.13797759,-0.113573714,0.018557614,0.105840557,0.197114614,0.088406994,0.136116324,0.06670117,0.09761846,0.0433833,0.062193881,0.103087875,0.122127905,0.058806036,0.011807465,212526,F30,PercentChange,dt
260,-0.015885476,0.009419553,-0.105407578,0.078678844,-0.077607084,0.012307398,-0.07420463,-0.074983955,-0.009246849,-0.046177165,-0.044655959,-0.03799935,-0.031341124,-0.01314905,-0.010281189,0.06271356,0.155582254,0.050764082,-0.04639866,-0.062237846,0.017461691,0.042091433,0.021970986,0.006188941,-0.088906061,-0.000176435,0.003263471,0.034570643,0.013409535,0.02330841,-0.053553294,0.02771975,222324,F30,PercentChange,dt
261,-0.196617895,-0.018932889,0.026974668,-0.280177468,0.018044613,0.039542854,0.107883436,-0.075232368,0.072720289,-0.13897098,0.14934401,-0.098679519,-0.155742263,-0.3101645,-0.032316819,0.078699308,0.055679671,0.176680017,-0.071432282,0.122728128,0.098941181,0.15602591,0.013260369,0.033015364,0.111279478,-0.04471703,0.15879879,0.154932038,-0.009265651,0.016550399,0.033216421,0.089830605,11,M30,PercentChange,dt
262,0.200651791,0.179469726,0.163225214,0.137766488,0.05029887,0.124623536,0.350715744,0.15090546,0.348890597,0.129665884,0.00604917,0.215206205,0.231960941,0.049394975,0.155960863,0.015703129,0.169377617,0.064144866,-0.031517737,0.028466861,0.348099752,0.131805795,0.125128468,0.128619612,0.00448397,0.307638381,-0.075437429,0.2412218,0.298925897,0.046269498,-0.068950608,0.041983214,13,M30,PercentChange,dt
263,0.190385391,0.080024822,0.128968966,-0.121784262,0.081389237,-0.094294766,0.100674949,0.047246731,0.076957283,-0.046327102,-0.02747458,0.077242634,0.1200244,0.067486568,0.080626141,0.128992296,0.13821414,0.156234011,0.081801788,-0.016984776,0.02398636,-0.094619543,-0.043091014,-0.072001824,-0.025783637,-0.144811998,-0.118907241,-0.169541642,-0.12771728,-0.018626184,0.036396644,-0.03833191,14,M30,PercentChange,dt
264,-0.035986951,-0.153792843,-0.170393768,-0.084626402,-0.088236123,-0.053942098,-0.004967319,0.014339683,-0.031738139,0.00985279,-0.058136376,0.001080632,-0.007058321,0.017366426,-0.040419027,0.007229778,-0.05558418,-0.032859724,0.035352889,-0.020125979,-0.006688601,-0.043989882,-0.005463823,-0.090668655,-0.052638806,0.067763063,-0.022176213,-0.051633546,-0.150696109,-0.0848866,-0.063162755,0.112719065,16,M30,PercentChange,dt
265,-0.160097584,-0.071567843,-0.064169124,0.020702067,-0.133296445,-0.019891014,0.056806336,-0.053158771,0.018730179,0.129622004,-0.075725246,0.026817078,-0.135317794,-0.230825428,-0.06722206,0.020390326,-0.098992492,-0.119164049,-0.061545945,0.079635476,0.049306178,0.085888601,-0.047639905,-0.017673919,-0.142763256,-0.03665756,0.019091396,0.143687161,-0.123865406,-0.110775763,-0.114407271,0.047390876,20,M30,PercentChange,dt
266,0.205886691,0.116892677,0.055609149,0.085557637,0.055502859,-0.011809584,0.061326871,0.039226145,0.011202291,0.107908785,0.084440217,0.071774491,0.101614698,0.086804736,0.06548451,0.039960645,0.00270663,0.009666155,0.044410409,-0.035155848,-0.031944342,0.071607025,0.052336518,0.025301701,0.032304198,0.066273737,0.039276653,0.008465481,0.0428867,-0.017211371,0.020060958,0.017126945,1219,M30,PercentChange,dt
267,-0.019280686,-0.017997872,0.00083403,0.003485474,-0.134381784,-0.06974278,-0.030635651,-0.033798815,0.042587392,-0.087219519,-0.021584311,-0.10467517,0.021608343,-0.067933944,-0.120649274,-0.048236786,0.0988016,-0.112365514,-0.019543647,0.068366511,0.065917865,-0.005460467,-0.042076219,-0.027461265,-0.038540513,0.009471015,-0.024593073,0.039635973,-0.087747027,-0.079882956,-0.117771587,0.030273558,1518,M30,PercentChange,dt
268,0.006595792,-0.038135571,0.077764054,-0.005990577,0.018570847,-0.005761334,-0.030615616,-0.035563516,-0.025873286,0.004504545,0.001175761,-0.009580773,-0.040490557,0.01774198,0.011220398,0.029247086,0.005729928,0.104916376,-0.048327855,0.091532214,0.024354269,0.05094837,0.011042856,0.032502191,0.083938976,0.01710214,0.017036309,-0.004005717,0.091297367,0.042786206,-0.033699023,-0.016575067,212526,M30,PercentChange,dt
269,-0.010313937,0.01086743,0.013191,-0.024935126,-0.007630915,0.027722633,0.098849565,0.036512658,0.140026533,0.060540305,0.170139266,0.068191193,0.095740415,0.018502438,0.072252541,-0.010274943,0.035138164,0.040390457,0.121827644,0.035926945,0.061674725,0.078036845,0.042638325,0.041604715,0.021758063,-0.055823784,0.018639101,0.004595627,-0.017030323,-0.009766136,0.013073239,0.052050381,222324,M30,PercentChange,dt
270,-0.158507985,-0.136534953,-0.107906693,-0.190582591,-0.008048376,-0.140893778,-0.010948946,0.24016921,0.453798366,-0.034268496,0.242362812,-0.052605877,0.085514443,-0.087499502,-0.021362074,0.309112142,0.266954143,0.337658594,0.150373797,0.222254976,0.074992386,0.024847249,0.1589344,-0.001084406,-0.024860464,0.122381307,0.090864104,0.173970013,-0.035384046,0.038269323,0.029575277,-0.063698289,11,F30,PercentChange,db
271,-0.044867794,0.094481572,-0.014772156,-0.060905896,-0.053521082,-0.092137134,0.05433671,0.063830344,0.190999719,-0.013323925,-0.039813624,0.084550317,0.157917778,-0.02142924,0.027052664,-0.069382974,0.177281875,0.152754457,0.06854629,0.033843715,-0.020351077,-0.048416428,-0.050690027,-0.063960519,-0.034751522,-0.078375333,-0.019905364,-0.074519175,0.053079477,0.003173494,-0.039503325,-0.041188915,13,F30,PercentChange,db
272,-0.095800218,0.040000311,-0.131728001,0.026647846,-0.062128461,-0.068226526,-0.062909592,-0.156579233,-0.14311363,-0.036150857,0.015771413,-0.155403786,-0.064250563,-0.08932562,-0.045595805,-0.018846482,0.038957865,0.032524469,-0.171929564,-0.027243861,-0.075362502,0.102803142,0.167041613,0.111660285,0.044748966,-0.096731629,-0.039373818,0.138749185,0.076534026,0.12514473,-0.004323784,-0.109880876,14,F30,PercentChange,db
273,-0.153177727,0.404632684,-0.066621118,0.195476744,-0.11021508,0.293544629,0.386122589,0.329221257,0.310034695,-0.201791291,-0.047193945,0.578953942,0.408250275,-0.16641058,0.21028859,-0.046084136,0.041871949,-0.0089181,0.564143529,-0.007635443,-0.069660914,-0.132331603,0.014602733,-0.152699811,-0.240321091,-0.096088088,-0.193815251,-0.04153113,-0.251365674,-0.331513641,-0.135067985,0.136050362,16,F30,PercentChange,db
274,0.021931587,0.018143234,0.056126995,-0.069938415,0.008858662,0.190436629,0.029849887,-0.070064295,0.056463789,0.08929572,0.263807753,0.293359344,0.094711637,0.089255262,0.219725581,0.104078519,-0.049361788,-0.032689259,0.120232128,0.090698325,0.027181149,0.076331422,-0.046923492,0.068140549,0.077211193,0.081182603,0.016413697,0.137375569,-0.049658857,0.229669107,0.15257016,-0.03004175,20,F30,PercentChange,db
275,-0.027896617,-0.039348203,-0.002396969,-0.160776467,-0.070543644,-0.041212815,0.070863834,0.003492609,0.067831558,-0.001082385,-0.007664389,0.065837982,0.064815304,0.013768401,-0.020903128,0.058413488,0.011321823,0.108882657,0.05952768,-0.088731906,-0.081387907,-0.034797387,-0.075471695,-0.070257833,-0.035267806,0.059418949,-0.028647389,-0.027027007,0.02573026,-0.046086975,-0.037799051,-0.017691538,1219,F30,PercentChange,db
276,-0.006126775,-0.1226953,-0.073776029,-0.102979989,0.017872243,0.082187446,0.012976497,-0.070761088,-0.095805415,-0.106013036,0.005277182,-0.077610179,-0.082513588,-0.06241914,-0.045827213,0.074064079,-0.121124873,-0.197031527,-0.120622559,-0.004243057,0.0677114,-0.042194166,-0.034030608,-0.026017787,0.024341765,-0.024508976,0.185458779,0.007024655,-0.042038493,-0.028029419,0.067859112,0.093968448,1518,F30,PercentChange,db
277,0.051427507,-0.075323439,0.042614287,0.113895054,0.006448384,-0.063080943,0.033551179,-0.049001222,-0.013524341,0.059064669,-0.099793293,0.032556442,-0.005009583,-0.022778648,-0.092987854,-0.012603005,0.095590364,0.087499237,-0.007294155,0.042096324,0.075756952,0.166584618,0.160445381,0.258506584,0.008065378,-0.029119691,0.120454775,0.059085912,0.093176692,0.024937769,0.003565279,-0.014258016,212526,F30,PercentChange,db
278,0.01791482,0.045609931,0.055484906,0.095388073,-0.025415484,0.12574035,0.046068111,0.103720081,0.06331207,-0.012316842,0.091890311,0.068367301,0.033607555,-0.027265866,0.047351119,0.04183998,-0.007776223,0.048026712,0.098257526,-0.036000204,0.085067361,0.104654683,0.060774987,0.135325002,0.077806511,0.0412929,0.039603243,0.078202892,0.084397697,0.077598286,0.009374809,0.075514229,222324,F30,PercentChange,db
279,-0.136424815,-0.048866439,-0.132069394,-0.279185369,0.07207609,0.058194384,0.063022219,0.342910086,0.143855266,-7.95E-05,-0.002435042,0.105109714,-0.04444517,-0.118280216,-0.036928595,0.11252665,0.380140745,0.230711843,-0.038070861,-0.032694523,0.186294253,0.135980588,-0.234257664,-0.126947571,0.012310955,0.011449638,0.239752018,-0.071540196,-0.017233798,0.049614334,0.106865748,0.169157037,11,M30,PercentChange,db
280,-0.098824983,0.116472636,0.079324876,0.061930557,-0.02992432,-0.103576174,-0.022727271,-0.137983124,-0.218782306,-0.100319304,-0.209959577,-0.095355866,-0.196110708,-0.015416093,-0.108491057,-0.259538573,-0.190292795,-0.236993357,-0.288070979,-0.021245976,0.061250488,-0.097422472,-0.094840302,-0.115130654,-0.006089508,-0.066755294,-0.034484861,-0.069286493,-0.083570313,-0.10329384,0.001680261,-0.018371977,13,M30,PercentChange,db
281,0.027663508,0.005130349,0.105573971,-0.119196936,0.043583177,0.032572578,-0.010470161,-0.218414592,-0.0583636,-0.053256877,0.004540154,-0.134128902,0.043136571,-0.026254478,0.060849323,-0.234846122,-0.217408268,-0.190660508,-0.15826116,-0.035686065,0.060713919,0.067681862,-0.02125755,0.02157316,-0.015418149,-0.093230643,-0.011993383,-0.019460018,-0.080574862,-0.012846005,-0.017323327,0.095509151,14,M30,PercentChange,db
282,-0.097956959,-0.17571174,0.023913133,0.088746431,0.062113389,0.079888948,0.139985845,0.034766781,0.11021439,0.080962803,0.043129254,-0.167853159,-0.014342542,0.309815448,0.018245721,0.171687892,0.24127733,0.18407191,-0.032028976,0.169127206,0.122581842,0.193074,0.056508276,0.09224135,0.166103952,0.02971716,0.069068753,0.226405038,0.127957795,-0.027884863,0.17699823,0.205393816,16,M30,PercentChange,db
283,-0.00468438,0.081627679,-0.188425777,0.127565094,-0.119561171,0.019369944,-0.044671563,-0.339000074,-0.258145347,-0.008241263,-0.051835594,-0.056299935,-0.206250545,-0.288696255,-0.107709729,-0.155176849,-0.039323357,0.196152606,-0.127471536,-0.109491235,0.12276203,-0.0698451,-0.005555075,0.070086507,0.017583122,-0.062210293,-0.015750249,-0.057452909,-0.03843136,-0.097268843,-0.073558398,-0.029445315,20,M30,PercentChange,db
284,0.081189642,0.108080981,0.0683466,0.07589268,-0.010770139,0.029884053,-0.029500224,0.111750629,0.009842622,0.094205195,-0.04063247,-0.001926457,-0.065711123,-0.013732022,-0.00893498,-0.18757236,-0.353187557,-0.276519591,-0.032207509,-0.093532001,-0.044477158,0.018269842,-0.013036261,-0.000331373,-0.055339625,0.028206994,-0.048317397,0.002167458,0.013844337,-0.05568744,-0.081281729,-0.034096328,1219,M30,PercentChange,db
285,0.074807862,0.10219444,0.090327576,0.098770543,0.134328927,0.137808154,0.080527536,0.121882977,0.109775545,0.184808307,0.050051482,-0.009123023,0.073120792,0.163786625,0.063630188,0.165037227,0.15744328,0.122305417,0.105663549,-0.045770462,-0.023846707,0.037112499,0.107236719,0.079298909,0.097087233,0.108861385,0.028827567,-0.070234692,-0.07687561,-0.027567266,0.183447425,0.081004621,1518,M30,PercentChange,db
286,-0.025908652,0.026955695,0.081273737,-0.059838268,-0.001968537,-0.004180314,0.042036894,0.197480533,0.096680587,0.065975631,0.041848135,0.06681122,0.034688232,0.130501679,0.037280554,0.06733591,0.074694335,0.271831502,0.06787353,0.103305997,0.120753185,0.063849705,0.004116913,0.039552361,-0.006715528,0.006824821,0.003100557,0.061504519,-0.033013192,0.145524908,0.030434492,0.133705873,212526,M30,PercentChange,db
287,0.042422205,-0.005174957,0.053964296,0.023166174,0.038806139,-0.052434711,-0.097955862,-0.024166987,-0.023817427,0.019509865,0.024089816,0.023839763,0.025231065,0.085218951,0.006790858,-0.168364738,-0.10248676,-0.140618388,-0.030466138,-0.026233548,0.015828009,0.039217792,-0.013048563,-0.049556709,-0.006695026,-0.095832417,-0.02426404,0.002013966,-0.072502397,-0.087366742,0.032722723,-0.010510647,222324,M30,PercentChange,db
288,-0.11965419,-0.163304877,0.117731681,0.01625862,0.030039395,-0.071430803,-0.182059436,-0.285474824,-0.323829486,-0.314300447,-0.29756732,-0.288029846,-0.302573374,-0.329179341,-0.249668689,-0.157323802,-0.064852455,-0.144744766,-0.285393316,-0.033439174,-0.003026847,-0.088180901,-0.05256662,-0.136375985,0.140416094,-0.185030798,0.018899882,0.036333147,-0.123324828,-0.146475636,-0.044673056,-0.081681946,11,F30,PercentChange,at
289,-0.001668819,-0.046721465,-0.031654913,0.032563492,0.015783132,0.219414695,-0.145737499,-0.190767564,-0.062780126,-0.077915487,-0.175973317,-0.294731733,-0.116860461,-0.053428905,-0.134504751,-0.255975737,-0.196116719,-0.166534483,-0.285252603,0.060585008,0.027914293,0.252676314,0.24710395,0.242401088,0.071372973,-0.052446475,0.043568628,0.139688662,0.055904844,0.019519458,-0.030525366,0.289775532,13,F30,PercentChange,at
290,0.104601794,-0.036767041,0.006694663,0.15019525,-0.1190569,0.042349865,0.161079086,0.070267002,0.209355107,0.185415054,0.013288427,0.186811454,0.213682151,0.173079226,0.044057682,-0.055958313,-0.09114847,-0.084287261,0.20938146,-0.019248929,0.003628986,-0.066863052,-0.033221632,-0.030464225,0.015674638,0.218618028,-0.104854055,0.056549678,-0.072161518,0.014750967,-0.037137031,0.084587591,14,F30,PercentChange,at
291,0.221842724,0.066350473,0.051553361,0.082584748,-0.050840993,0.119641713,0.167083884,0.058602239,-0.077513442,0.309282452,0.084474712,0.133207659,0.046981645,0.200154352,-0.052277504,-0.044486596,-0.050525085,-0.078948878,-0.060847422,0.054626592,0.128316723,0.396857249,0.052235236,0.342150478,0.250357615,-0.01606493,0.129161412,0.002845428,0.300963217,0.316179584,0.016991756,-0.023983151,16,F30,PercentChange,at
292,-0.191929386,-0.140094706,-0.176543579,-0.008168729,0.035546149,-0.163074776,-0.155535003,-0.094325904,-0.344309939,-0.226632403,-0.229662759,-0.18652117,-0.123400683,-0.073754237,-0.069779988,-0.174835276,-0.153903063,0.067650688,-0.201908788,-0.066039924,-0.014124867,-0.013828851,-0.079465818,-0.035093417,-0.211922175,0.000360015,0.003874763,-0.066341706,-0.068886768,-0.05394196,-0.097180291,0.000298561,20,F30,PercentChange,at
293,0.230178297,0.108072592,0.052342396,0.091550201,0.073502838,0.12238692,0.398156096,0.284269303,0.199887136,0.177867052,0.231886955,0.373055918,0.361838318,0.170634222,0.157036939,0.155686426,0.157794766,0.133902135,0.203178382,0.271502106,0.233407942,0.120251756,0.208593725,0.176625284,0.180151339,0.189076781,0.154841313,0.064801304,0.278660259,0.188597135,0.160425344,0.203552296,1219,F30,PercentChange,at
294,-0.038422562,0.025116986,0.208509292,0.040300446,-0.013713461,0.130667568,-0.039999417,-0.134530135,-0.113050753,0.022591981,-0.044656296,-0.129865912,-0.047632452,-0.031113068,0.019030851,-0.159264468,-0.067357897,-0.062616189,-0.151811866,0.034310352,-0.037764707,-0.006315272,-0.011085226,-0.041101125,-0.00057842,0.041077582,-0.073441191,0.016763471,0.033788672,0.007876296,-0.08285041,-0.03349369,1518,F30,PercentChange,at
295,0.048655086,0.23834826,-0.03612811,0.077446199,0.059761073,0.25775533,0.143999075,0.053658428,0.216624085,0.039116012,0.174664244,0.132839093,0.126942793,0.055449929,0.259636014,0.02463485,0.052979514,0.020571239,0.175151217,0.082212876,0.16549713,0.210797017,0.106938838,0.114308538,0.08689691,0.122568157,0.023414929,0.269580615,0.143476267,0.202272566,0.096005627,0.278161499,212526,F30,PercentChange,at
296,-0.123693862,-0.070165833,-0.098399206,-0.062833702,-0.129043636,-0.062466915,-0.06094783,-0.059682226,-0.111173263,-0.10944418,-0.043219052,-0.0574888,-0.066371362,-0.117404625,-0.038443083,0.145606146,0.095478381,0.064626317,-0.098348071,-0.125532298,-0.076189317,-0.068838657,0.024635155,0.021520701,-0.11413216,0.023334595,-0.122553088,0.000472383,-0.00106141,-0.041890495,-0.075644138,-0.05865592,222324,F30,PercentChange,at
297,0.050896195,0.129160004,0.075431709,0.064078473,-0.131106922,0.081114131,-0.102175813,-0.165823433,-0.031140284,-0.004607108,0.015130404,-0.04162089,-0.120800033,0.034872763,-0.091345227,-0.15690692,-0.027997979,-0.134190501,-0.104952669,0.086190117,-0.059893025,0.149911729,0.315285207,0.431107974,-0.039772077,0.255464894,-0.10467037,0.100688707,0.101531037,-0.058870049,-0.009373422,0.015647426,11,M30,PercentChange,at
298,-0.234142852,-0.033055924,-0.25875251,-0.076453755,-0.24933657,0.028385498,-0.119261125,-0.015895686,-0.002578765,-0.142507876,-0.087565028,-0.021244096,-0.077219279,-0.2124741,-0.018596038,0.231678371,0.199748992,0.070035501,-0.040395507,-0.159354653,-0.025333233,-0.005529414,-0.025432459,-0.019141275,-0.225012537,0.038858265,-0.264666612,0.032420151,0.040039574,0.11779941,-0.228916506,0.177454895,13,M30,PercentChange,at
299,0.34401165,0.230286541,0.223528273,0.127930381,0.075599646,0.071174866,0.165588949,0.248697437,0.241477006,0.159857804,0.080499595,0.08243981,0.197232962,0.26609777,0.228840158,0.056503418,0.10638077,0.104978859,0.219500659,-0.038926492,0.108757955,-0.000581234,-0.043638767,-0.007410996,0.127091302,0.105126683,-0.063330629,-0.025026411,0.057579827,0.140440165,0.083587098,0.060553347,14,M30,PercentChange,at
300,0.034460469,0.101528984,-0.05040743,-0.138102449,0.032966159,0.017701251,0.181738991,-0.111920659,0.005074893,0.013895466,-0.139825787,0.142897473,0.060238799,0.053111128,-0.018605808,-0.063879076,-0.111975839,-0.067075863,-0.083253469,-0.054458475,-0.01145799,0.098401998,-0.059226442,0.080598462,-0.073387748,-0.062333553,-0.002830763,-0.152019193,0.125442566,0.102437965,0.021306904,0.084490182,16,M30,PercentChange,at
301,-0.224667057,-0.259660137,-0.038297055,-0.143516476,-0.145342093,-0.159376896,-0.007750181,0.019491689,0.140397613,-0.176460261,0.008219234,-0.178498652,0.048208351,0.045893141,0.007840179,-0.154482112,-0.083865869,-0.150160501,-0.030010801,0.013245139,0.002422772,0.010791596,-0.1025064,0.044823561,0.042869785,-0.070189807,-0.10155055,0.030897924,-0.174506385,-0.066340795,-0.08154933,0.118252756,20,M30,PercentChange,at
302,-0.067597048,-0.029963636,-0.086320226,0.036708056,-0.134829818,-0.052725152,0.026338608,0.042080088,-0.032315201,-0.053471451,-0.099489964,-0.023065209,-0.025475058,-0.056070844,-0.028123228,0.296557664,0.153755627,0.139386579,0.026895126,-0.125448169,-0.053282908,-0.175951824,-0.004524826,-0.024188556,-0.123422316,0.047268488,-0.178579575,-0.016118259,-0.076301027,0.013582588,-0.087854143,-0.055768835,1219,M30,PercentChange,at
303,-0.095313104,-0.112311385,-0.126426942,-0.153541995,-0.046538634,0.005392501,-0.148822954,-0.163342537,-0.00891675,-0.192549809,-0.147802717,-0.180717538,-0.066906142,-0.240960425,-0.049271857,-0.129657207,-0.065638797,-0.171269697,-0.107684007,-0.050337849,-0.049904834,-0.171769765,-0.04900798,-0.051506123,-0.080423735,-0.101281118,-0.142326089,-0.038914137,-0.080762164,-0.050512642,-0.144753858,-0.022674977,1518,M30,PercentChange,at
304,-0.003354537,-0.043511932,-0.08336,-0.056910221,-0.056149317,-0.014676323,0.057058415,0.002510047,0.039399881,-0.151191907,-0.00875139,0.080409866,0.043969837,-0.113752784,0.058073795,-0.114308621,-0.031515348,-0.102196112,0.057677347,-0.072250481,-0.007067709,-0.010602351,0.050261454,-0.068132464,-0.063184871,-0.06637712,-0.050706169,0.014722213,-0.046845866,-0.022615632,-0.005576626,0.026759235,212526,M30,PercentChange,at
305,0.147765041,0.034783402,0.027805656,0.044836763,0.067610753,0.090013841,0.000695442,0.146327683,-0.003835529,0.098400166,0.102224569,0.094865835,0.015605607,0.07466418,0.076298667,-0.009677315,0.064347215,0.046418162,-0.002900788,0.09341975,0.164033381,0.029772366,0.058228452,0.027284576,0.047863226,0.063111086,0.049072228,0.082784102,0.016285453,-0.018140885,0.073974673,0.070459503,222324,M30,PercentChange,at
306,-0.047347786,-0.047347786,-0.047347786,-0.047347786,-0.047347786,-0.047347786,-0.047347786,-0.047347786,-0.047347786,-0.047347786,-0.047347786,-0.047347786,-0.047347786,-0.047347786,-0.047347786,-0.047347786,-0.047347786,-0.047347786,-0.047347786,-0.047347786,-0.047347786,-0.047347786,-0.047347786,-0.047347786,-0.047347786,-0.047347786,-0.047347786,-0.047347786,-0.047347786,-0.047347786,-0.047347786,-0.047347786,11,F30,PercentChange,Perf_mean
307,-0.039573892,-0.039573892,-0.039573892,-0.039573892,-0.039573892,-0.039573892,-0.039573892,-0.039573892,-0.039573892,-0.039573892,-0.039573892,-0.039573892,-0.039573892,-0.039573892,-0.039573892,-0.039573892,-0.039573892,-0.039573892,-0.039573892,-0.039573892,-0.039573892,-0.039573892,-0.039573892,-0.039573892,-0.039573892,-0.039573892,-0.039573892,-0.039573892,-0.039573892,-0.039573892,-0.039573892,-0.039573892,13,F30,PercentChange,Perf_mean
308,-0.035847967,-0.035847967,-0.035847967,-0.035847967,-0.035847967,-0.035847967,-0.035847967,-0.035847967,-0.035847967,-0.035847967,-0.035847967,-0.035847967,-0.035847967,-0.035847967,-0.035847967,-0.035847967,-0.035847967,-0.035847967,-0.035847967,-0.035847967,-0.035847967,-0.035847967,-0.035847967,-0.035847967,-0.035847967,-0.035847967,-0.035847967,-0.035847967,-0.035847967,-0.035847967,-0.035847967,-0.035847967,14,F30,PercentChange,Perf_mean
309,-0.041841026,-0.041841026,-0.041841026,-0.041841026,-0.041841026,-0.041841026,-0.041841026,-0.041841026,-0.041841026,-0.041841026,-0.041841026,-0.041841026,-0.041841026,-0.041841026,-0.041841026,-0.041841026,-0.041841026,-0.041841026,-0.041841026,-0.041841026,-0.041841026,-0.041841026,-0.041841026,-0.041841026,-0.041841026,-0.041841026,-0.041841026,-0.041841026,-0.041841026,-0.041841026,-0.041841026,-0.041841026,16,F30,PercentChange,Perf_mean
310,0.039765492,0.039765492,0.039765492,0.039765492,0.039765492,0.039765492,0.039765492,0.039765492,0.039765492,0.039765492,0.039765492,0.039765492,0.039765492,0.039765492,0.039765492,0.039765492,0.039765492,0.039765492,0.039765492,0.039765492,0.039765492,0.039765492,0.039765492,0.039765492,0.039765492,0.039765492,0.039765492,0.039765492,0.039765492,0.039765492,0.039765492,0.039765492,20,F30,PercentChange,Perf_mean
311,-0.056071924,-0.056071924,-0.056071924,-0.056071924,-0.056071924,-0.056071924,-0.056071924,-0.056071924,-0.056071924,-0.056071924,-0.056071924,-0.056071924,-0.056071924,-0.056071924,-0.056071924,-0.056071924,-0.056071924,-0.056071924,-0.056071924,-0.056071924,-0.056071924,-0.056071924,-0.056071924,-0.056071924,-0.056071924,-0.056071924,-0.056071924,-0.056071924,-0.056071924,-0.056071924,-0.056071924,-0.056071924,1219,F30,PercentChange,Perf_mean
312,0.005219996,0.005219996,0.005219996,0.005219996,0.005219996,0.005219996,0.005219996,0.005219996,0.005219996,0.005219996,0.005219996,0.005219996,0.005219996,0.005219996,0.005219996,0.005219996,0.005219996,0.005219996,0.005219996,0.005219996,0.005219996,0.005219996,0.005219996,0.005219996,0.005219996,0.005219996,0.005219996,0.005219996,0.005219996,0.005219996,0.005219996,0.005219996,1518,F30,PercentChange,Perf_mean
313,-0.061725393,-0.061725393,-0.061725393,-0.061725393,-0.061725393,-0.061725393,-0.061725393,-0.061725393,-0.061725393,-0.061725393,-0.061725393,-0.061725393,-0.061725393,-0.061725393,-0.061725393,-0.061725393,-0.061725393,-0.061725393,-0.061725393,-0.061725393,-0.061725393,-0.061725393,-0.061725393,-0.061725393,-0.061725393,-0.061725393,-0.061725393,-0.061725393,-0.061725393,-0.061725393,-0.061725393,-0.061725393,212526,F30,PercentChange,Perf_mean
314,0.027046032,0.027046032,0.027046032,0.027046032,0.027046032,0.027046032,0.027046032,0.027046032,0.027046032,0.027046032,0.027046032,0.027046032,0.027046032,0.027046032,0.027046032,0.027046032,0.027046032,0.027046032,0.027046032,0.027046032,0.027046032,0.027046032,0.027046032,0.027046032,0.027046032,0.027046032,0.027046032,0.027046032,0.027046032,0.027046032,0.027046032,0.027046032,222324,F30,PercentChange,Perf_mean
315,0.003412398,0.003412398,0.003412398,0.003412398,0.003412398,0.003412398,0.003412398,0.003412398,0.003412398,0.003412398,0.003412398,0.003412398,0.003412398,0.003412398,0.003412398,0.003412398,0.003412398,0.003412398,0.003412398,0.003412398,0.003412398,0.003412398,0.003412398,0.003412398,0.003412398,0.003412398,0.003412398,0.003412398,0.003412398,0.003412398,0.003412398,0.003412398,11,M30,PercentChange,Perf_mean
316,0.090218821,0.090218821,0.090218821,0.090218821,0.090218821,0.090218821,0.090218821,0.090218821,0.090218821,0.090218821,0.090218821,0.090218821,0.090218821,0.090218821,0.090218821,0.090218821,0.090218821,0.090218821,0.090218821,0.090218821,0.090218821,0.090218821,0.090218821,0.090218821,0.090218821,0.090218821,0.090218821,0.090218821,0.090218821,0.090218821,0.090218821,0.090218821,13,M30,PercentChange,Perf_mean
317,0.010662477,0.010662477,0.010662477,0.010662477,0.010662477,0.010662477,0.010662477,0.010662477,0.010662477,0.010662477,0.010662477,0.010662477,0.010662477,0.010662477,0.010662477,0.010662477,0.010662477,0.010662477,0.010662477,0.010662477,0.010662477,0.010662477,0.010662477,0.010662477,0.010662477,0.010662477,0.010662477,0.010662477,0.010662477,0.010662477,0.010662477,0.010662477,14,M30,PercentChange,Perf_mean
318,-0.030597716,-0.030597716,-0.030597716,-0.030597716,-0.030597716,-0.030597716,-0.030597716,-0.030597716,-0.030597716,-0.030597716,-0.030597716,-0.030597716,-0.030597716,-0.030597716,-0.030597716,-0.030597716,-0.030597716,-0.030597716,-0.030597716,-0.030597716,-0.030597716,-0.030597716,-0.030597716,-0.030597716,-0.030597716,-0.030597716,-0.030597716,-0.030597716,-0.030597716,-0.030597716,-0.030597716,-0.030597716,16,M30,PercentChange,Perf_mean
319,0.04920055,0.04920055,0.04920055,0.04920055,0.04920055,0.04920055,0.04920055,0.04920055,0.04920055,0.04920055,0.04920055,0.04920055,0.04920055,0.04920055,0.04920055,0.04920055,0.04920055,0.04920055,0.04920055,0.04920055,0.04920055,0.04920055,0.04920055,0.04920055,0.04920055,0.04920055,0.04920055,0.04920055,0.04920055,0.04920055,0.04920055,0.04920055,20,M30,PercentChange,Perf_mean
320,0.027655294,0.027655294,0.027655294,0.027655294,0.027655294,0.027655294,0.027655294,0.027655294,0.027655294,0.027655294,0.027655294,0.027655294,0.027655294,0.027655294,0.027655294,0.027655294,0.027655294,0.027655294,0.027655294,0.027655294,0.027655294,0.027655294,0.027655294,0.027655294,0.027655294,0.027655294,0.027655294,0.027655294,0.027655294,0.027655294,0.027655294,0.027655294,1219,M30,PercentChange,Perf_mean
321,0.029239482,0.029239482,0.029239482,0.029239482,0.029239482,0.029239482,0.029239482,0.029239482,0.029239482,0.029239482,0.029239482,0.029239482,0.029239482,0.029239482,0.029239482,0.029239482,0.029239482,0.029239482,0.029239482,0.029239482,0.029239482,0.029239482,0.029239482,0.029239482,0.029239482,0.029239482,0.029239482,0.029239482,0.029239482,0.029239482,0.029239482,0.029239482,1518,M30,PercentChange,Perf_mean
322,0.032471711,0.032471711,0.032471711,0.032471711,0.032471711,0.032471711,0.032471711,0.032471711,0.032471711,0.032471711,0.032471711,0.032471711,0.032471711,0.032471711,0.032471711,0.032471711,0.032471711,0.032471711,0.032471711,0.032471711,0.032471711,0.032471711,0.032471711,0.032471711,0.032471711,0.032471711,0.032471711,0.032471711,0.032471711,0.032471711,0.032471711,0.032471711,212526,M30,PercentChange,Perf_mean
323,0.017645155,0.017645155,0.017645155,0.017645155,0.017645155,0.017645155,0.017645155,0.017645155,0.017645155,0.017645155,0.017645155,0.017645155,0.017645155,0.017645155,0.017645155,0.017645155,0.017645155,0.017645155,0.017645155,0.017645155,0.017645155,0.017645155,0.017645155,0.017645155,0.017645155,0.017645155,0.017645155,0.017645155,0.017645155,0.017645155,0.017645155,0.017645155,222324,M30,PercentChange,Perf_mean
